# Frequency(GHz) Transmission
      110.000    0.0192279
      110.100    0.0185436
      110.200    0.0177269
      110.300    0.0167918
      110.400    0.0157524
      110.500    0.0146226
      110.600    0.0134165
      110.700    0.0121481
      110.800    0.0108313
      110.900   0.00948032
      111.000   0.00810911
      111.100   0.00673168
      111.200   0.00536203
      111.300   0.00401410
      111.400   0.00270210
      111.500   0.00143995
      111.600  0.000241671
      111.700 -0.000878717
      111.800  -0.00190727
      111.900  -0.00282981
      112.000  -0.00363241
      112.100  -0.00430104
      112.200  -0.00482168
      112.300  -0.00518033
      112.400  -0.00536293
      112.500  -0.00535548
      112.600  -0.00514513
      112.700  -0.00474051
      112.800  -0.00416907
      112.900  -0.00345901
      113.000  -0.00263844
      113.100  -0.00173549
      113.200 -0.000778291
      113.300  0.000205107
      113.400   0.00118642
      113.500   0.00213758
      113.600   0.00303047
      113.700   0.00383695
      113.800   0.00452894
      113.900   0.00507820
      114.000   0.00545666
      114.100   0.00535364
      114.200   0.00481721
      114.300   0.00411273
      114.400   0.00326821
      114.500   0.00231148
      114.600   0.00127044
      114.700  0.000172963
      114.800 -0.000953141
      114.900  -0.00207981
      115.000  -0.00317925
      115.100  -0.00422357
      115.200  -0.00518487
      115.300  -0.00603534
      115.400  -0.00674695
      115.500  -0.00729188
      115.600  -0.00738222
      115.700  -0.00706097
      115.800  -0.00657898
      115.900  -0.00596156
      116.000  -0.00523394
      116.100  -0.00442136
      116.200  -0.00354908
      116.300  -0.00264227
      116.400  -0.00172633
      116.500 -0.000826435
      116.600  3.21636e-05
      116.700  0.000824215
      116.800   0.00152452
      116.900   0.00210772
      117.000   0.00254862
      117.100   0.00258368
      117.200   0.00224818
      117.300   0.00177648
      117.400   0.00119081
      117.500  0.000513318
      117.600 -0.000233830
      117.700  -0.00102846
      117.800  -0.00184848
      117.900  -0.00267157
      118.000  -0.00347564
      118.100  -0.00423852
      118.200  -0.00493803
      118.300  -0.00555204
      118.400  -0.00605830
      118.500  -0.00643469
      118.600  -0.00644161
      118.700  -0.00610250
      118.800  -0.00563556
      118.900  -0.00506239
      119.000  -0.00440450
      119.100  -0.00368342
      119.200  -0.00292069
      119.300  -0.00213779
      119.400  -0.00135638
      119.500 -0.000597930
      119.600  0.000116018
      119.700  0.000763928
      119.800   0.00132430
      119.900   0.00177551
      120.000   0.00209608
      120.100   0.00203966
      120.200   0.00162044
      120.300   0.00106832
      120.400  0.000406981
      120.500 -0.000340009
      120.600  -0.00114904
      120.700  -0.00199651
      120.800  -0.00285887
      120.900  -0.00371239
      121.000  -0.00453352
      121.100  -0.00529867
      121.200  -0.00598421
      121.300  -0.00656659
      121.400  -0.00702211
      121.500  -0.00732721
      121.600  -0.00722318
      121.700  -0.00671898
      121.800  -0.00606140
      121.900  -0.00527654
      122.000  -0.00439035
      122.100  -0.00342882
      122.200  -0.00241797
      122.300  -0.00138370
      122.400 -0.000352173
      122.500  0.000650691
      122.600   0.00159889
      122.700   0.00246644
      122.800   0.00322739
      122.900   0.00385561
      123.000   0.00432519
      123.100   0.00438336
      123.200   0.00404114
      123.300   0.00354378
      123.400   0.00291525
      123.500   0.00217940
      123.600   0.00136013
      123.700  0.000481315
      123.800 -0.000433209
      123.900  -0.00135941
      124.000  -0.00227348
      124.100  -0.00315151
      124.200  -0.00396962
      124.300  -0.00470397
      124.400  -0.00533055
      124.500  -0.00582553
      124.600  -0.00601019
      124.700  -0.00590436
      124.800  -0.00568297
      124.900  -0.00535928
      125.000  -0.00494654
      125.100  -0.00445798
      125.200  -0.00390684
      125.300  -0.00330632
      125.400  -0.00266976
      125.500  -0.00201035
      125.600  -0.00134133
      125.700 -0.000675949
      125.800 -2.73973e-05
      125.900  0.000590983
      126.000   0.00116600
      126.100   0.00168012
      126.200   0.00216977
      126.300   0.00264750
      126.400   0.00310553
      126.500   0.00353622
      126.600   0.00393188
      126.700   0.00428481
      126.800   0.00458734
      126.900   0.00483174
      127.000   0.00501034
      127.100   0.00511545
      127.200   0.00513937
      127.300   0.00507440
      127.400   0.00491288
      127.500   0.00464709
      127.600   0.00385637
      127.700   0.00242961
      127.800  0.000816998
      127.900 -0.000919723
      128.000  -0.00271920
      128.100  -0.00452007
      128.200  -0.00626046
      128.300  -0.00787941
      128.400  -0.00931496
      128.500   -0.0105061
      128.600   -0.0113910
      128.700   -0.0119081
      128.800   -0.0119963
      128.900   -0.0115938
      129.000   -0.0106392
      129.100  -0.00981171
      129.200  -0.00940527
      129.300  -0.00865921
      129.400  -0.00749388
      129.500  -0.00582901
      129.600  -0.00358483
      129.700 -0.000681909
      129.800   0.00296053
      129.900   0.00742128
      130.000    0.0127816
      130.100    0.0191208
      130.200    0.0265176
      130.300    0.0350541
      130.400    0.0448077
      130.500    0.0558612
      130.600    0.0698503
      130.700    0.0873419
      130.800     0.106509
      130.900     0.127022
      131.000     0.148564
      131.100     0.170810
      131.200     0.193431
      131.300     0.216113
      131.400     0.238525
      131.500     0.260351
      131.600     0.281264
      131.700     0.300937
      131.800     0.319054
      131.900     0.335287
      132.000     0.349316
      132.100     0.357939
      132.200     0.360716
      132.300     0.361197
      132.400     0.359752
      132.500     0.356752
      132.600     0.352567
      132.700     0.347569
      132.800     0.342126
      132.900     0.336611
      133.000     0.331393
      133.100     0.326843
      133.200     0.323332
      133.300     0.321230
      133.400     0.320907
      133.500     0.322735
      133.600     0.330687
      133.700     0.345381
      133.800     0.362316
      133.900     0.381076
      134.000     0.401254
      134.100     0.422435
      134.200     0.444204
      134.300     0.466155
      134.400     0.487869
      134.500     0.508941
      134.600     0.528955
      134.700     0.547496
      134.800     0.564157
      134.900     0.578522
      135.000     0.590183
      135.100     0.596105
      135.200     0.595959
      135.300     0.593208
      135.400     0.588180
      135.500     0.581194
      135.600     0.572576
      135.700     0.562650
      135.800     0.551738
      135.900     0.540166
      136.000     0.528254
      136.100     0.516328
      136.200     0.504712
      136.300     0.493728
      136.400     0.483701
      136.500     0.474952
      136.600     0.469219
      136.700     0.466312
      136.800     0.464263
      136.900     0.463041
      137.000     0.462614
      137.100     0.462949
      137.200     0.464013
      137.300     0.465775
      137.400     0.468200
      137.500     0.471260
      137.600     0.474918
      137.700     0.479145
      137.800     0.483907
      137.900     0.489172
      138.000     0.494907
      138.100     0.501016
      138.200     0.507709
      138.300     0.515081
      138.400     0.523026
      138.500     0.531444
      138.600     0.540231
      138.700     0.549281
      138.800     0.558497
      138.900     0.567770
      139.000     0.577003
      139.100     0.586089
      139.200     0.594925
      139.300     0.603411
      139.400     0.611441
      139.500     0.618915
      139.600     0.625349
      139.700     0.630763
      139.800     0.635729
      139.900     0.640271
      140.000     0.644416
      140.100     0.648190
      140.200     0.651617
      140.300     0.654726
      140.400     0.657542
      140.500     0.660091
      140.600     0.662400
      140.700     0.664493
      140.800     0.666399
      140.900     0.668141
      141.000     0.669748
      141.100     0.670996
      141.200     0.671622
      141.300     0.671935
      141.400     0.672026
      141.500     0.671980
      141.600     0.671887
      141.700     0.671835
      141.800     0.671911
      141.900     0.672205
      142.000     0.672803
      142.100     0.673794
      142.200     0.675266
      142.300     0.677308
      142.400     0.680007
      142.500     0.683451
      142.600     0.688554
      142.700     0.695684
      142.800     0.703656
      142.900     0.712327
      143.000     0.721558
      143.100     0.731207
      143.200     0.741131
      143.300     0.751193
      143.400     0.761247
      143.500     0.771156
      143.600     0.780777
      143.700     0.789967
      143.800     0.798590
      143.900     0.806499
      144.000     0.813558
      144.100     0.818702
      144.200     0.821629
      144.300     0.823726
      144.400     0.825106
      144.500     0.825883
      144.600     0.826171
      144.700     0.826082
      144.800     0.825733
      144.900     0.825236
      145.000     0.824704
      145.100     0.824253
      145.200     0.823994
      145.300     0.824043
      145.400     0.824514
      145.500     0.825519
      145.600     0.828652
      145.700     0.834623
      145.800     0.841257
      145.900     0.848369
      146.000     0.855780
      146.100     0.863307
      146.200     0.870767
      146.300     0.877980
      146.400     0.884762
      146.500     0.890934
      146.600     0.896311
      146.700     0.900713
      146.800     0.903958
      146.900     0.905863
      147.000     0.906247
      147.100     0.903188
      147.200     0.895704
      147.300     0.886468
      147.400     0.875789
      147.500     0.863970
      147.600     0.851319
      147.700     0.838144
      147.800     0.824746
      147.900     0.811437
      148.000     0.798517
      148.100     0.786297
      148.200     0.775082
      148.300     0.765177
      148.400     0.756889
      148.500     0.750523
      148.600     0.748351
      148.700     0.751266
      148.800     0.756100
      148.900     0.762584
      149.000     0.770454
      149.100     0.779440
      149.200     0.789273
      149.300     0.799689
      149.400     0.810417
      149.500     0.821192
      149.600     0.831746
      149.700     0.841809
      149.800     0.851117
      149.900     0.859400
      150.000     0.866392
      150.100     0.870403
      150.200     0.870911
      150.300     0.870296
      150.400     0.868687
      150.500     0.866213
      150.600     0.863001
      150.700     0.859180
      150.800     0.854878
      150.900     0.850224
      151.000     0.845345
      151.100     0.840370
      151.200     0.835429
      151.300     0.830648
      151.400     0.826157
      151.500     0.822083
      151.600     0.817646
      151.700     0.811783
      151.800     0.805790
      151.900     0.799898
      152.000     0.794334
      152.100     0.789325
      152.200     0.785103
      152.300     0.781892
      152.400     0.779924
      152.500     0.779425
      152.600     0.780624
      152.700     0.783750
      152.800     0.789030
      152.900     0.796693
      153.000     0.806967
      153.100     0.822206
      153.200     0.844142
      153.300     0.869197
      153.400     0.896854
      153.500     0.926613
      153.600     0.957961
      153.700     0.990383
      153.800      1.02338
      153.900      1.05643
      154.000      1.08905
      154.100      1.12070
      154.200      1.15089
      154.300      1.17911
      154.400      1.20484
      154.500      1.22758
      154.600      1.24510
      154.700      1.25678
      154.800      1.26588
      154.900      1.27257
      155.000      1.27705
      155.100      1.27949
      155.200      1.28009
      155.300      1.27902
      155.400      1.27648
      155.500      1.27265
      155.600      1.26771
      155.700      1.26186
      155.800      1.25527
      155.900      1.24813
      156.000      1.24063
      156.100      1.23423
      156.200      1.22941
      156.300      1.22389
      156.400      1.21771
      156.500      1.21094
      156.600      1.20362
      156.700      1.19581
      156.800      1.18755
      156.900      1.17892
      157.000      1.16994
      157.100      1.16069
      157.200      1.15121
      157.300      1.14155
      157.400      1.13178
      157.500      1.12193
      157.600      1.11219
      157.700      1.10249
      157.800      1.09257
      157.900      1.08248
      158.000      1.07226
      158.100      1.06197
      158.200      1.05166
      158.300      1.04137
      158.400      1.03116
      158.500      1.02108
      158.600      1.01118
      158.700      1.00150
      158.800     0.992103
      158.900     0.983035
      159.000     0.974344
      159.100     0.966327
      159.200     0.959176
      159.300     0.952410
      159.400     0.945985
      159.500     0.939852
      159.600     0.933965
      159.700     0.928278
      159.800     0.922742
      159.900     0.917313
      160.000     0.911943
      160.100     0.906584
      160.200     0.901191
      160.300     0.895716
      160.400     0.890113
      160.500     0.884334
      160.600     0.877277
      160.700     0.867901
      160.800     0.858140
      160.900     0.848164
      161.000     0.838133
      161.100     0.828214
      161.200     0.818573
      161.300     0.809369
      161.400     0.800772
      161.500     0.792943
      161.600     0.786047
      161.700     0.780251
      161.800     0.775715
      161.900     0.772607
      162.000     0.771090
      162.100     0.772480
      162.200     0.777973
      162.300     0.785293
      162.400     0.794162
      162.500     0.804304
      162.600     0.815438
      162.700     0.827286
      162.800     0.839571
      162.900     0.852013
      163.000     0.864337
      163.100     0.876263
      163.200     0.887510
      163.300     0.897804
      163.400     0.906863
      163.500     0.914413
      163.600     0.919101
      163.700     0.920159
      163.800     0.919875
      163.900     0.918375
      164.000     0.915780
      164.100     0.912214
      164.200     0.907802
      164.300     0.902665
      164.400     0.896930
      164.500     0.890716
      164.600     0.884149
      164.700     0.877353
      164.800     0.870449
      164.900     0.863563
      165.000     0.856816
      165.100     0.851026
      165.200     0.846695
      165.300     0.842359
      165.400     0.838006
      165.500     0.833623
      165.600     0.829198
      165.700     0.824721
      165.800     0.820177
      165.900     0.815555
      166.000     0.810843
      166.100     0.806028
      166.200     0.801100
      166.300     0.796045
      166.400     0.790851
      166.500     0.785506
      166.600     0.779813
      166.700     0.773533
      166.800     0.767041
      166.900     0.760384
      167.000     0.753607
      167.100     0.746756
      167.200     0.739880
      167.300     0.733020
      167.400     0.726225
      167.500     0.719541
      167.600     0.713012
      167.700     0.706687
      167.800     0.700610
      167.900     0.694827
      168.000     0.689383
      168.100     0.684532
      168.200     0.680495
      168.300     0.676807
      168.400     0.673429
      168.500     0.670314
      168.600     0.667423
      168.700     0.664712
      168.800     0.662138
      168.900     0.659660
      169.000     0.657234
      169.100     0.654819
      169.200     0.652371
      169.300     0.649848
      169.400     0.647209
      169.500     0.644408
      169.600     0.641007
      169.700     0.636527
      169.800     0.631847
      169.900     0.627025
      170.000     0.622117
      170.100     0.617181
      170.200     0.612274
      170.300     0.607452
      170.400     0.602774
      170.500     0.598294
      170.600     0.594072
      170.700     0.590163
      170.800     0.586626
      170.900     0.583516
      171.000     0.580890
      171.100     0.578932
      171.200     0.577772
      171.300     0.577087
      171.400     0.576837
      171.500     0.576985
      171.600     0.577493
      171.700     0.578322
      171.800     0.579433
      171.900     0.580789
      172.000     0.582351
      172.100     0.584081
      172.200     0.585940
      172.300     0.587891
      172.400     0.589895
      172.500     0.591913
      172.600     0.594398
      172.700     0.598241
      172.800     0.602401
      172.900     0.606729
      173.000     0.611076
      173.100     0.615293
      173.200     0.619231
      173.300     0.622741
      173.400     0.625675
      173.500     0.627884
      173.600     0.629219
      173.700     0.629532
      173.800     0.628672
      173.900     0.626492
      174.000     0.622843
      174.100     0.617197
      174.200     0.609027
      174.300     0.599334
      174.400     0.588263
      174.500     0.575960
      174.600     0.562574
      174.700     0.548249
      174.800     0.533137
      174.900     0.517381
      175.000     0.501125
      175.100     0.484520
      175.200     0.467711
      175.300     0.450848
      175.400     0.434074
      175.500     0.417535
      175.600     0.401601
      175.700     0.386249
      175.800     0.370805
      175.900     0.355349
      176.000     0.339961
      176.100     0.324727
      176.200     0.309729
      176.300     0.295051
      176.400     0.280776
      176.500     0.266982
      176.600     0.253756
      176.700     0.241179
      176.800     0.229337
      176.900     0.218309
      177.000     0.208178
      177.100     0.199204
      177.200     0.191673
      177.300     0.185087
      177.400     0.179355
      177.500     0.174387
      177.600     0.170096
      177.700     0.166390
      177.800     0.163183
      177.900     0.160385
      178.000     0.157905
      178.100     0.155655
      178.200     0.153545
      178.300     0.151488
      178.400     0.149394
      178.500     0.147172
      178.600     0.144332
      178.700     0.140367
      178.800     0.136376
      178.900     0.132366
      179.000     0.128347
      179.100     0.124327
      179.200     0.120316
      179.300     0.116323
      179.400     0.112358
      179.500     0.108427
      179.600     0.104543
      179.700     0.100712
      179.800    0.0969450
      179.900    0.0932506
      180.000    0.0896371
      180.100    0.0860365
      180.200    0.0822907
      180.300    0.0785891
      180.400    0.0749463
      180.500    0.0713770
      180.600    0.0678971
      180.700    0.0645219
      180.800    0.0612670
      180.900    0.0581472
      181.000    0.0551775
      181.100    0.0523735
      181.200    0.0497504
      181.300    0.0473240
      181.400    0.0451090
      181.500    0.0431205
      181.600    0.0413920
      181.700    0.0399713
      181.800    0.0387986
      181.900    0.0378502
      182.000    0.0371026
      182.100    0.0365325
      182.200    0.0361164
      182.300    0.0358310
      182.400    0.0356527
      182.500    0.0355581
      182.600    0.0355238
      182.700    0.0355264
      182.800    0.0355423
      182.900    0.0355482
      183.000    0.0355206
      183.100    0.0353805
      183.200    0.0350730
      183.300    0.0347759
      183.400    0.0344811
      183.500    0.0341803
      183.600    0.0338654
      183.700    0.0335284
      183.800    0.0331611
      183.900    0.0327554
      184.000    0.0323030
      184.100    0.0317960
      184.200    0.0312261
      184.300    0.0305854
      184.400    0.0298656
      184.500    0.0290585
      184.600    0.0280736
      184.700    0.0267315
      184.800    0.0252688
      184.900    0.0237105
      185.000    0.0220816
      185.100    0.0204075
      185.200    0.0187135
      185.300    0.0170249
      185.400    0.0153669
      185.500    0.0137643
      185.600    0.0122426
      185.700    0.0108270
      185.800   0.00954295
      185.900   0.00841544
      186.000   0.00746950
      186.100   0.00682553
      186.200   0.00667318
      186.300   0.00671379
      186.400   0.00692275
      186.500   0.00727555
      186.600   0.00774762
      186.700   0.00831436
      186.800   0.00895110
      186.900   0.00963334
      187.000    0.0103366
      187.100    0.0110363
      187.200    0.0117078
      187.300    0.0123264
      187.400    0.0128676
      187.500    0.0133070
      187.600    0.0135305
      187.700    0.0133699
      187.800    0.0131181
      187.900    0.0127864
      188.000    0.0123864
      188.100    0.0119295
      188.200    0.0114273
      188.300    0.0108914
      188.400    0.0103331
      188.500   0.00976384
      188.600   0.00919525
      188.700   0.00863880
      188.800   0.00810608
      188.900   0.00760848
      189.000   0.00715744
      189.100   0.00681151
      189.200   0.00666672
      189.300   0.00656633
      189.400   0.00650344
      189.500   0.00647119
      189.600   0.00646275
      189.700   0.00647125
      189.800   0.00648983
      189.900   0.00651164
      190.000   0.00652981
      190.100   0.00653750
      190.200   0.00652784
      190.300   0.00649398
      190.400   0.00642907
      190.500   0.00632622
      190.600   0.00613585
      190.700   0.00575615
      190.800   0.00532953
      190.900   0.00486590
      191.000   0.00437512
      191.100   0.00386723
      191.200   0.00335218
      191.300   0.00284002
      191.400   0.00234062
      191.500   0.00186387
      191.600   0.00141979
      191.700   0.00101836
      191.800  0.000669569
      191.900  0.000383319
      192.000  0.000169535
      192.100  8.14251e-05
      192.200  0.000226812
      192.300  0.000454423
      192.400  0.000751830
      192.500   0.00110665
      192.600   0.00150638
      192.700   0.00193858
      192.800   0.00239073
      192.900   0.00285045
      193.000   0.00330536
      193.100   0.00374294
      193.200   0.00415074
      193.300   0.00451626
      193.400   0.00482712
      193.500   0.00507091
      193.600   0.00518847
      193.700   0.00506505
      193.800   0.00487201
      193.900   0.00461936
      194.000   0.00431707
      194.100   0.00397521
      194.200   0.00360380
      194.300   0.00321294
      194.400   0.00281258
      194.500   0.00241270
      194.600   0.00202339
      194.700   0.00165467
      194.800   0.00131661
      194.900   0.00101920
      195.000  0.000772407
      195.100  0.000622446
      195.200  0.000661605
      195.300  0.000752355
      195.400  0.000887304
      195.500   0.00105909
      195.600   0.00126029
      195.700   0.00148352
      195.800   0.00172134
      195.900   0.00196639
      196.000   0.00221131
      196.100   0.00244867
      196.200   0.00267107
      196.300   0.00287109
      196.400   0.00304137
      196.500   0.00317453
      196.600   0.00323499
      196.700   0.00314624
      196.800   0.00301844
      196.900   0.00285769
      197.000   0.00267005
      197.100   0.00246164
      197.200   0.00223858
      197.300   0.00200700
      197.400   0.00177296
      197.500   0.00154254
      197.600   0.00132186
      197.700   0.00111704
      197.800  0.000934199
      197.900  0.000779406
      198.000  0.000658747
      198.100  0.000578334
      198.200  0.000541639
      198.300  0.000546408
      198.400  0.000589627
      198.500  0.000668308
      198.600  0.000779440
      198.700  0.000920018
      198.800   0.00108701
      198.900   0.00127743
      199.000   0.00148831
      199.100   0.00171661
      199.200   0.00195934
      199.300   0.00221344
      199.400   0.00247595
      199.500   0.00274390
      199.600   0.00301425
      199.700   0.00328399
      199.800   0.00355008
      199.900   0.00380956
      200.000   0.00405945
